# XDI/1.0 Demeter/0.9.26
# Beamline.name: BM08-LISA
# Column.1: energy eV
# Column.2: mutrans
# Column.3: murefer
# Element.edge: K
# Element.symbol: Cu
# Facility.name: ESRF
# Facility.xray_source: Bending magnet
# Mono.d_spacing: 3.134692
# Mono.name: Si(111)
# Mono.notes: LNT cooled
# Sample.formula: CuO
# Sample.name: Copper(II) oxide, cupric oxide
# Sample.reference: Cu metal foil
# Scan.start_time: 2023-01-17T20:09:17
# ///
# room temperature
#------------------------
#  energy  mutrans  murefer
  8830.1565        1.0107757       0.58990060
  8840.0348        1.0047951       0.58762967
  8849.8222       0.99894438       0.58502319
  8859.6833       0.99310098       0.58265538
  8869.5932       0.98727352       0.58023187
  8879.5174       0.98140876       0.57762917
  8889.5129       0.97563178       0.57541158
  8899.5579       0.96986673       0.57304757
  8909.5434       0.96421243       0.57053159
  8919.6143       0.95866288       0.56833530
  8929.5492       0.95327096       0.56595352
  8939.4078       0.94819240       0.56419755
  8949.3716       0.94351018       0.56309585
  8959.3909       0.93979936       0.56374040
  8959.8911       0.93967084       0.56402437
  8960.3446       0.93954109       0.56412613
  8960.8698       0.93945092       0.56415037
  8961.3615       0.93930044       0.56460369
  8961.8644       0.93919545       0.56485139
  8962.4028       0.93911703       0.56499039
  8962.8644       0.93904137       0.56538193
  8963.3389       0.93896810       0.56563452
  8963.8628       0.93888922       0.56579507
  8964.3107       0.93883597       0.56622541
  8964.8019       0.93878725       0.56660520
  8965.3458       0.93874033       0.56699376
  8965.8025       0.93873143       0.56757559
  8966.3250       0.93873257       0.56796093
  8966.8371       0.93874869       0.56866630
  8967.3112       0.93879116       0.56937735
  8967.8555       0.93885850       0.56991740
  8968.3401       0.93894353       0.57083659
  8968.8395       0.93906271       0.57168861
  8969.3684       0.93932360       0.57365206
  8969.8195       0.93947008       0.57526639
  8970.3052       0.93959298       0.57636337
  8970.8325       0.93978844       0.57736976
  8971.2915       0.94004373       0.57938346
  8971.8103       0.94040764       0.58156087
  8972.3317       0.94082696       0.58429704
  8972.8021       0.94133004       0.58774027
  8973.3722       0.94197421       0.59199193
  8973.8575       0.94270949       0.59684965
  8974.3254       0.94357019       0.60295854
  8974.8550       0.94465492       0.61043820
  8975.3196       0.94611032       0.62026045
  8975.8024       0.94805204       0.63372852
  8976.3348       0.95093472       0.65248977
  8976.7943       0.95478979       0.68061086
  8977.3094       0.95865205       0.72688634
  8977.8428       0.96098841       0.80559839
  8978.3164       0.96252182       0.92854289
  8978.8864       0.96577630        1.0868596
  8979.3818       0.97126602        1.2164500
  8979.8503       0.97897032        1.2973661
  8980.3857       0.98866549        1.3377412
  8980.8553        1.0006391        1.3500765
  8981.3413        1.0160128        1.3429600
  8981.8804        1.0372275        1.3272123
  8982.3501        1.0678923        1.3146122
  8982.8676        1.1096752        1.3152879
  8983.4034        1.1596980        1.3334022
  8983.8828        1.2084682        1.3649559
  8984.4283        1.2450890        1.4004604
  8984.9295        1.2655712        1.4330025
  8985.4013        1.2728903        1.4633706
  8985.9704        1.2736804        1.4969946
  8986.4388        1.2748329        1.5328094
  8986.9290        1.2818730        1.5749556
  8987.4670        1.2981640        1.6233955
  8987.9338        1.3240181        1.6785592
  8988.4502        1.3565265        1.7404132
  8988.9798        1.3924155        1.8086485
  8989.4519        1.4298809        1.8792743
  8989.9964        1.4704006        1.9494890
  8990.4939        1.5137946        2.0153427
  8990.9645        1.5552738        2.0749784
  8991.4978        1.5884738        2.1271848
  8991.9685        1.6118886        2.1701742
  8992.4454        1.6288887        2.1995409
  8992.9832        1.6436230        2.2137606
  8993.4489        1.6578371        2.2125737
  8993.9547        1.6721013        2.1990166
  8994.4918        1.6870151        2.1778945
  8994.9629        1.7036502        2.1527857
  8995.4966        1.7218793        2.1265140
  8996.0044        1.7387828        2.1023407
  8996.4643        1.7504066        2.0829533
  8996.9921        1.7547768        2.0684690
  8997.4678        1.7526973        2.0607488
  8997.9296        1.7464490        2.0601020
  8998.4611        1.7383156        2.0671592
  8998.9326        1.7294898        2.0823340
  8999.4120        1.7197294        2.1054987
  8999.9585        1.7079413        2.1359326
  9000.4266        1.6935267        2.1703954
  9000.9384        1.6766840        2.2041013
  9001.4642        1.6595182        2.2315053
  9001.9203        1.6436877        2.2493500
  9002.4305        1.6302555        2.2548460
  9002.9312        1.6188780        2.2486696
  9003.3849        1.6092072        2.2336210
  9003.9083        1.6006336        2.2124232
  9004.4005        1.5925510        2.1887253
  9004.8691        1.5846487        2.1648232
  9005.4154        1.5771359        2.1431964
  9005.9025        1.5706093        2.1241965
  9006.3957        1.5655202        2.1079653
  9006.9387        1.5621915        2.0929780
  9007.4006        1.5604943        2.0786372
  9007.8967        1.5601062        2.0639134
  9008.4163        1.5607481        2.0491541
  9008.8688        1.5619618        2.0356708
  9009.3754        1.5635044        2.0247176
  9010.4396        1.5661080        2.0110059
  9011.5582        1.5664712        2.0118868
  9012.7095        1.5646804        2.0197636
  9013.8523        1.5618796        2.0325216
  9014.9490        1.5584907        2.0512394
  9016.0977        1.5540109        2.0778766
  9017.3184        1.5473091        2.1105621
  9018.5342        1.5371839        2.1441516
  9019.7827        1.5238293        2.1761559
  9021.0062        1.5098067        2.2063674
  9022.3080        1.4970191        2.2362315
  9023.6154        1.4874923        2.2589709
  9024.9136        1.4811025        2.2689853
  9026.1955        1.4769678        2.2594035
  9027.5392        1.4764011        2.2315974
  9028.9360        1.4804461        2.1939319
  9030.2998        1.4877468        2.1559267
  9031.7080        1.4974389        2.1211248
  9033.1210        1.5081442        2.0969076
  9034.6249        1.5197003        2.0819427
  9036.0846        1.5313296        2.0760434
  9037.5640        1.5433001        2.0783123
  9039.0801        1.5551890        2.0870064
  9040.6353        1.5657779        2.0963580
  9042.1665        1.5735209        2.0999261
  9043.7070        1.5793955        2.0960993
  9045.3150        1.5848663        2.0923154
  9046.9420        1.5895989        2.0949211
  9048.5838        1.5935820        2.1115203
  9050.2755        1.5935443        2.1226183
  9051.9706        1.5907913        2.1268492
  9053.6504        1.5856738        2.1282086
  9055.3459        1.5795443        2.1345622
  9057.1241        1.5733513        2.1496392
  9058.9225        1.5673256        2.1678086
  9060.6571        1.5612436        2.1822242
  9062.4313        1.5553747        2.1934782
  9064.2646        1.5503587        2.2038312
  9066.0871        1.5457144        2.2174488
  9067.9220        1.5414838        2.2349322
  9069.7885        1.5373174        2.2506078
  9071.6709        1.5336623        2.2571045
  9073.5284        1.5305293        2.2500729
  9075.4710        1.5277898        2.2303129
  9077.3762        1.5255356        2.2034201
  9079.3098        1.5235741        2.1738781
  9081.2966        1.5220013        2.1487459
  9083.2621        1.5202674        2.1264968
  9085.2391        1.5180788        2.1084809
  9087.2908        1.5159469        2.0985464
  9089.2589        1.5143745        2.0895152
  9091.3437        1.5130604        2.0712975
  9093.3528        1.5114873        2.0482632
  9095.3708        1.5095838        2.0278602
  9097.5253        1.5078300        2.0164463
  9099.5523        1.5064905        2.0189258
  9101.7570        1.5050066        2.0332033
  9103.9181        1.5034425        2.0554080
  9106.1222        1.5023075        2.0793313
  9108.3632        1.5011833        2.1001493
  9110.5623        1.4995960        2.1150189
  9112.8422        1.4976641        2.1225010
  9115.0874        1.4962216        2.1234418
  9117.3938        1.4957202        2.1226544
  9119.7058        1.4958835        2.1278114
  9122.0101        1.4972589        2.1454170
  9124.3900        1.4997287        2.1778709
  9126.7487        1.5027711        2.2161665
  9129.1122        1.5052626        2.2423632
  9131.5417        1.5068384        2.2509491
  9133.8638        1.5075161        2.2443746
  9136.3210        1.5070645        2.2337542
  9138.8120        1.5059212        2.2168800
  9141.2351        1.5043615        2.1930834
  9143.7459        1.5027273        2.1613769
  9146.2429        1.5009449        2.1245340
  9148.8097        1.4988041        2.0835260
  9151.2535        1.4965017        2.0431130
  9153.8097        1.4938354        2.0050246
  9156.3900        1.4908316        1.9772809
  9159.0133        1.4870808        1.9669694
  9161.6173        1.4826133        1.9773783
  9164.1758        1.4774990        2.0035463
  9166.8190        1.4718979        2.0379267
  9169.4729        1.4661948        2.0687601
  9172.2135        1.4608754        2.0901771
  9174.8860        1.4570367        2.1004926
  9177.6046        1.4551018        2.1017744
  9180.3075        1.4551087        2.0971265
  9183.1166        1.4561773        2.0914322
  9185.8955        1.4574525        2.0881842
  9188.7408        1.4577251        2.0859142
  9191.5379        1.4566435        2.0814938
  9194.4159        1.4544221        2.0755652
  9197.2776        1.4516648        2.0747996
  9200.2331        1.4489731        2.0866683
  9203.1578        1.4462788        2.1086604
  9206.1300        1.4433290        2.1297276
  9209.0896        1.4404630        2.1386830
  9212.1353        1.4382853        2.1383754
  9215.1317        1.4374599        2.1322820
  9218.2154        1.4375955        2.1206529
  9221.2782        1.4381709        2.1028062
  9224.4045        1.4385135        2.0784153
  9227.4872        1.4376083        2.0521325
  9230.6215        1.4350546        2.0280549
  9233.7259        1.4314760        2.0084990
  9236.9206        1.4275638        1.9964391
  9240.1002        1.4242054        1.9934641
  9243.3749        1.4218478        1.9959971
  9246.5876        1.4204524        1.9986689
  9249.7564        1.4195158        1.9996618
  9252.9598        1.4183468        2.0005740
  9256.1506        1.4170536        2.0025053
  9259.4620        1.4154221        2.0051735
  9262.7472        1.4135125        2.0097062
  9266.0412        1.4108888        2.0157671
  9269.2969        1.4076735        2.0213065
  9272.6689        1.4039255        2.0261044
  9276.0443        1.4002923        2.0288261
  9279.4399        1.3972562        2.0297983
  9282.8148        1.3943931        2.0277636
  9286.2796        1.3930813        2.0357386
  9289.7815        1.3913919        2.0370832
  9293.1976        1.3895738        2.0381619
  9296.7374        1.3875406        2.0367487
  9300.2623        1.3853406        2.0329539
  9303.7917        1.3828463        2.0246027
  9307.3875        1.3801192        2.0141388
  9310.9019        1.3770985        2.0040106
  9314.4761        1.3738228        1.9935636
  9318.0756        1.3707593        1.9848821
  9321.6677        1.3680663        1.9797280
  9325.3441        1.3660017        1.9772821
  9328.9015        1.3641872        1.9747651
  9332.5923        1.3623348        1.9699340
  9336.2531        1.3602718        1.9619729
  9339.9103        1.3579376        1.9528570
  9343.6448        1.3552094        1.9471605
  9347.3220        1.3522478        1.9467737
  9351.0729        1.3493033        1.9478910
  9354.7524        1.3466029        1.9479559
  9358.5765        1.3444801        1.9480887
  9362.3763        1.3428459        1.9493439
  9366.2229        1.3416967        1.9501659
  9370.0812        1.3406000        1.9512235
  9374.0091        1.3394586        1.9523324
  9377.9185        1.3378675        1.9531051
  9381.8351        1.3358748        1.9538341
  9385.7987        1.3336127        1.9539848
  9389.6678        1.3310977        1.9532531
  9393.6754        1.3282458        1.9523615
  9397.6045        1.3252012        1.9508596
  9401.5245        1.3220671        1.9473461
  9405.5615        1.3189478        1.9424474
  9409.5084        1.3160082        1.9358793
  9413.5343        1.3134187        1.9286408
  9417.5474        1.3109509        1.9224909
  9421.5371        1.3084351        1.9174230
  9425.6109        1.3056092        1.9144843
  9429.6546        1.3025385        1.9121995
  9433.7183        1.2993759        1.9102857
  9437.8518        1.2964500        1.9077309
  9441.9919        1.2936966        1.9044852
  9446.1348        1.2911440        1.9000143
  9450.3402        1.2886678        1.8954202
  9454.5416        1.2863313        1.8906538
  9458.7228        1.2837429        1.8852056
  9462.9541        1.2818181        1.8855194
  9467.2619        1.2798051        1.8828003
  9471.5562        1.2779012        1.8802192
  9475.7683        1.2759055        1.8783993
  9480.0889        1.2737043        1.8771050
  9484.5067        1.2711507        1.8766331
  9488.8899        1.2684043        1.8767180
  9493.2286        1.2655284        1.8766663
  9497.6113        1.2627040        1.8768364
  9502.0206        1.2599574        1.8764781
  9506.4788        1.2574672        1.8756094
  9510.9551        1.2550413        1.8737790
  9515.4600        1.2524220        1.8706259
  9519.9351        1.2496021        1.8665558
  9524.4459        1.2467028        1.8611056
  9528.9541        1.2437851        1.8560138
  9533.5177        1.2409432        1.8514461
  9538.1074        1.2383503        1.8427053
  9542.7478        1.2358649        1.8449743
  9547.4204        1.2334336        1.8420877
  9552.0868        1.2308742        1.8390407
  9556.7549        1.2283160        1.8364421
  9561.4385        1.2257455        1.8334967
  9566.1466        1.2231341        1.8305368
  9570.8545        1.2206389        1.8276747
  9575.5731        1.2181700        1.8244259
  9580.2707        1.2157033        1.8212072
  9585.0077        1.2132344        1.8181746
  9589.7604        1.2105020        1.8153678
  9594.5159        1.2076314        1.8131789
  9599.3151        1.2046848        1.8110181
  9604.1799        1.2016210        1.8088676
  9609.0597        1.1987447        1.8068712
  9613.9336        1.1959590        1.8048285
  9618.8335        1.1931249        1.8028947
  9623.7326        1.1902863        1.8012880
  9628.7148        1.1874237        1.7991955
  9633.7063        1.1845251        1.7968870
  9638.6871        1.1816713        1.7947571
  9643.6821        1.1789039        1.7920105
  9648.7458        1.1761182        1.7891205
  9653.8089        1.1733483        1.7861936
  9658.9046        1.1706360        1.7827302
  9663.9988        1.1681613        1.7795009
  9669.0833        1.1654737        1.7764464
  9674.1894        1.1627861        1.7733385
  9679.2799        1.1600893        1.7703996
  9684.3514        1.1574362        1.7674955
  9689.4274        1.1547352        1.7642828
  9694.5607        1.1521421        1.7613248
  9699.7705        1.1495258        1.7583234
  9705.0686        1.1468249        1.7554414
  9710.3369        1.1440935        1.7526574
  9715.6120        1.1412777        1.7495648
  9720.9369        1.1384261        1.7468413
  9726.2862        1.1355369        1.7439888
  9731.6149        1.1326045        1.7413499
  9736.9905        1.1296202        1.7387353
  9742.3742        1.1267377        1.7363149
  9747.7948        1.1237471        1.7338009
  9753.1260        1.1207345        1.7316081
  9758.5466        1.1177594        1.7293244
  9764.0505        1.1147821        1.7267625
  9769.4256        1.1119220        1.7245779
  9774.8450        1.1089972        1.7215444
  9780.3326        1.1061428        1.7187238
  9785.7913        1.1032749        1.7161195
  9791.2583        1.1005058        1.7134397
  9796.8839        1.0976790        1.7106774
  9802.4622        1.0948151        1.7079554
  9807.9930        1.0920374        1.7051456
  9813.6300        1.0892576        1.7024618
  9819.2173        1.0864692        1.6992871
  9824.9322        1.0836134        1.6963411
  9830.6799        1.0807046        1.6932761
  9836.4074        1.0778108        1.6901083
