# XDI/1.0 Athena/0.9.26
# Beamline.name: BM08-LISA
# Column.1: energy eV
# Column.2: mutrans
# Element.edge: K
# Element.symbol: Mo
# Facility.name: ESRF
# Facility.xray_source: Bending magnet
# Mono.d_spacing: 3.134692
# Mono.name: Si(111)
# Mono.notes: LNT cooled
# Sample.formula: Mo
# Sample.name: Mo metal foil
# Scan.start_time: 2018-10-22T15:07:35
# ///
# room temperature
#------------------------
#   energy  mutrans       
  19802.854        1.4392330        
  19807.346        1.4391691        
  19812.326        1.4389683        
  19816.860        1.4387465        
  19821.685        1.4386995        
  19826.677        1.4385608        
  19831.455        1.4384852        
  19836.318        1.4382917        
  19841.352        1.4382771        
  19846.297        1.4381468        
  19850.955        1.4381324        
  19855.810        1.4378703        
  19860.888        1.4378719        
  19865.597        1.4378663        
  19870.472        1.4378567        
  19875.462        1.4379638        
  19880.273        1.4378975        
  19884.938        1.4379082        
  19889.975        1.4381296        
  19894.980        1.4381717        
  19899.517        1.4382723        
  19904.488        1.4385050        
  19909.534        1.4387712        
  19914.292        1.4389964        
  19919.109        1.4393726        
  19924.198        1.4395971        
  19929.080        1.4401608        
  19933.755        1.4408390        
  19938.830        1.4415044        
  19943.864        1.4422816        
  19948.599        1.4434337        
  19953.545        1.4450538        
  19958.687        1.4466516        
  19963.547        1.4489763        
  19968.388        1.4519392        
  19973.563        1.4561868        
  19973.936        1.4566153        
  19974.461        1.4571931        
  19974.864        1.4578066        
  19975.408        1.4583052        
  19975.977        1.4591059        
  19976.420        1.4595469        
  19977.046        1.4603225        
  19977.532        1.4609029        
  19978.172        1.4616121        
  19978.768        1.4623987        
  19979.180        1.4630191        
  19979.706        1.4639689        
  19980.087        1.4647115        
  19980.583        1.4657476        
  19980.946        1.4665134        
  19981.446        1.4675672        
  19981.963        1.4687352        
  19982.362        1.4695491        
  19982.919        1.4708226        
  19983.357        1.4715955        
  19983.971        1.4729780        
  19984.454        1.4740961        
  19985.089        1.4756848        
  19985.712        1.4775941        
  19986.124        1.4791402        
  19986.650        1.4810133        
  19987.036        1.4827240        
  19987.532        1.4849800        
  19987.896        1.4868139        
  19988.405        1.4895084        
  19988.936        1.4924356        
  19989.339        1.4948112        
  19989.910        1.4983794        
  19990.361        1.5013053        
  19990.985        1.5056386        
  19991.647        1.5104457        
  19992.125        1.5145593        
  19992.762        1.5208501        
  19993.183        1.5260315        
  19993.732        1.5340895        
  19994.122        1.5411411        
  19994.640        1.5521713        
  19995.145        1.5656082        
  19995.531        1.5773363        
  19996.071        1.5962900        
  19996.497        1.6136631        
  19997.085        1.6414945        
  19997.542        1.6655046        
  19998.200        1.7027268        
  19998.868        1.7424947        
  19999.355        1.7742707        
  19999.970        1.8153897        
  20000.383        1.8444666        
  20000.919        1.8804745        
  20001.301        1.9059349        
  20001.810        1.9385783        
  20002.324        1.9702354        
  20002.719        1.9939862        
  20003.260        2.0261719        
  20003.686        2.0511775        
  20004.275        2.0846355        
  20004.740        2.1104998        
  20005.391        2.1443520        
  20006.045        2.1777228        
  20006.520        2.2024866        
  20007.113        2.2353502        
  20007.531        2.2607255        
  20008.049        2.2963843        
  20008.436        2.3264818        
  20008.937        2.3690353        
  20009.452        2.4168553        
  20009.838        2.4544224        
  20010.383        2.5081316        
  20010.810        2.5485544        
  20011.399        2.6007914        
  20011.869        2.6380740        
  20012.533        2.6819618        
  20013.026        2.7110128        
  20013.664        2.7430742        
  20014.257        2.7674903        
  20014.653        2.7807831        
  20015.181        2.7930535        
  20015.559        2.7974714        
  20016.061        2.7969302        
  20016.439        2.7920661        
  20016.971        2.7794010        
  20017.521        2.7617903        
  20017.948        2.7469844        
  20018.559        2.7258691        
  20019.034        2.7117863        
  20019.686        2.6965082        
  20020.183        2.6876482        
  20020.812        2.6811641        
  20021.402        2.6793001        
  20021.802        2.6812848        
  20022.326        2.6864937        
  20022.709        2.6927030        
  20023.229        2.7023530        
  20023.616        2.7095498        
  20024.153        2.7194893        
  20024.576        2.7265205        
  20025.157        2.7338000        
  20025.782        2.7401196        
  20026.257        2.7432693        
  20026.927        2.7456516        
  20027.420        2.7461759        
  20028.036        2.7459147        
  20028.468        2.7450591        
  20029.001        2.7436295        
  20029.516        2.7423015        
  20029.895        2.7413020        
  20030.411        2.7412278        
  20030.798        2.7413974        
  20031.340        2.7431954        
  20031.767        2.7453702        
  20032.349        2.7495084        
  20032.803        2.7534718        
  20033.450        2.7595196        
  20034.116        2.7667422        
  20034.587        2.7725768        
  20035.187        2.7808836        
  20035.597        2.7860920        
  20036.134        2.7941967        
  20036.518        2.7999180        
  20037.020        2.8075195        
  20037.527        2.8149885        
  20037.911        2.8206711        
  20038.440        2.8294124        
  20038.850        2.8352497        
  20039.427        2.8440227        
  20039.877        2.8503359        
  20040.521        2.8591165        
  20041.010        2.8653240        
  20041.645        2.8728055        
  20042.241        2.8784167        
  20042.655        2.8820420        
  20043.180        2.8844488        
  20043.555        2.8848481        
  20044.058        2.8826102        
  20044.424        2.8791110        
  20044.944        2.8714419        
  20045.346        2.8641388        
  20045.902        2.8529278        
  20046.475        2.8398915        
  20046.930        2.8290965        
  20047.574        2.8145841        
  20048.055        2.8040768        
  20048.708        2.7904342        
  20049.154        2.7811751        
  20049.723        2.7683674        
  20050.125        2.7605504        
  20050.641        2.7505049        
  20051.149        2.7418231        
  20051.533        2.7361923        
  20052.058        2.7298144        
  20052.460        2.7258299        
  20053.034        2.7218661        
  20053.467        2.7199287        
  20054.089        2.7175304        
  20054.584        2.7164888        
  20055.255        2.7164917        
  20055.895        2.7171275        
  20056.337        2.7180361        
  20056.898        2.7201544        
  20057.291        2.7224587        
  20057.808        2.7256109        
  20058.183        2.7283804        
  20058.691        2.7321327        
  20059.084        2.7351321        
  20059.632        2.7392695        
  20060.039        2.7422825        
  20060.631        2.7458615        
  20061.245        2.7489950        
  20061.718        2.7511991        
  20062.385        2.7533200        
  20062.849        2.7544773        
  20063.445        2.7553646        
  20063.861        2.7554526        
  20064.383        2.7553870        
  20064.758        2.7546729        
  20065.258        2.7538635        
  20065.762        2.7519000        
  20066.142        2.7505738        
  20066.668        2.7487226        
  20067.070        2.7472479        
  20067.649        2.7444697        
  20068.100        2.7427239        
  20068.737        2.7399352        
  20069.224        2.7381575        
  20069.856        2.7355899        
  20070.882        2.7310495        
  20071.780        2.7268622        
  20072.656        2.7230735        
  20073.554        2.7197591        
  20074.518        2.7186387        
  20075.580        2.7187432        
  20076.877        2.7218390        
  20077.904        2.7267783        
  20078.816        2.7346533        
  20079.829        2.7460219        
  20080.750        2.7572485        
  20081.897        2.7709322        
  20083.013        2.7822735        
  20084.310        2.7926643        
  20085.440        2.8000000        
  20086.334        2.8039380        
  20087.367        2.8042307        
  20088.465        2.8000596        
  20089.679        2.7918344        
  20090.814        2.7819100        
  20092.011        2.7682359        
  20093.057        2.7535961        
  20094.054        2.7392701        
  20095.105        2.7273012        
  20096.413        2.7176875        
  20097.699        2.7112677        
  20098.914        2.7087730        
  20099.974        2.7084104        
  20101.096        2.7103412        
  20102.143        2.7132968        
  20103.288        2.7160685        
  20104.739        2.7192682        
  20105.986        2.7209241        
  20107.189        2.7228422        
  20108.206        2.7236027        
  20109.418        2.7245230        
  20110.759        2.7256099        
  20112.256        2.7261267        
  20113.455        2.7268243        
  20114.632        2.7283458        
  20115.796        2.7300489        
  20117.044        2.7328042        
  20118.457        2.7369348        
  20119.906        2.7420189        
  20121.142        2.7486111        
  20122.280        2.7548994        
  20123.463        2.7615639        
  20124.770        2.7672596        
  20126.380        2.7716120        
  20127.705        2.7741399        
  20128.862        2.7742190        
  20130.139        2.7714410        
  20131.393        2.7661901        
  20132.969        2.7594259        
  20134.366        2.7527108        
  20135.711        2.7441965        
  20136.984        2.7353218        
  20138.231        2.7267219        
  20139.789        2.7162551        
  20141.401        2.7060646        
  20142.765        2.6957665        
  20143.901        2.6882578        
  20145.273        2.6819238        
  20146.810        2.6781788        
  20148.428        2.6752201        
  20149.783        2.6733757        
  20151.054        2.6725585        
  20152.539        2.6709908        
  20154.086        2.6699412        
  20155.665        2.6688896        
  20157.012        2.6695550        
  20158.400        2.6714562        
  20159.765        2.6744341        
  20161.336        2.6785505        
  20163.054        2.6837723        
  20164.380        2.6880826        
  20165.805        2.6922292        
  20167.376        2.6955206        
  20169.007        2.6981068        
  20170.650        2.7005739        
  20172.058        2.7014998        
  20173.519        2.7010514        
  20175.002        2.7002347        
  20176.777        2.6986218        
  20178.283        2.6976990        
  20179.669        2.6989811        
  20181.145        2.7027664        
  20182.849        2.7098544        
  20184.526        2.7199966        
  20186.074        2.7332713        
  20187.483        2.7451387        
  20189.054        2.7557971        
  20190.845        2.7642099        
  20192.532        2.7693726        
  20193.925        2.7711854        
  20195.568        2.7694436        
  20197.333        2.7638778        
  20199.169        2.7541905        
  20200.581        2.7418181        
  20202.176        2.7256349        
  20203.973        2.7073986        
  20205.725        2.6894252        
  20207.313        2.6701171        
  20208.833        2.6518110        
  20210.528        2.6349238        
  20212.439        2.6211293        
  20214.103        2.6110855        
  20215.611        2.6060549        
  20217.248        2.6056437        
  20219.165        2.6096204        
  20220.920        2.6161561        
  20222.456        2.6232730        
  20224.068        2.6295779        
  20226.125        2.6341992        
  20227.940        2.6363060        
  20229.472        2.6373858        
  20231.211        2.6379617        
  20233.054        2.6392393        
  20235.005        2.6417076        
  20236.520        2.6455624        
  20238.211        2.6509777        
  20240.172        2.6570188        
  20242.012        2.6638303        
  20243.672        2.6714588        
  20245.364        2.6800994        
  20247.367        2.6881660        
  20249.231        2.6946323        
  20250.933        2.7007586        
  20252.671        2.7054647        
  20254.712        2.7079394        
  20256.717        2.7094103        
  20258.393        2.7096726        
  20260.295        2.7091755        
  20262.364        2.7090265        
  20264.262        2.7095205        
  20265.903        2.7099101        
  20267.847        2.7097947        
  20269.931        2.7079312        
  20271.759        2.7048480        
  20273.550        2.7008114        
  20275.432        2.6959201        
  20277.699        2.6902176        
  20279.591        2.6831650        
  20281.338        2.6756458        
  20283.543        2.6658732        
  20285.716        2.6551315        
  20287.397        2.6453859        
  20289.349        2.6368853        
  20291.596        2.6297246        
  20293.581        2.6241385        
  20295.372        2.6188064        
  20297.439        2.6138222        
  20299.656        2.6088816        
  20301.498        2.6047735        
  20303.376        2.6025096        
  20305.613        2.6021607        
  20307.827        2.6054278        
  20309.666        2.6112190        
  20311.740        2.6180534        
  20314.160        2.6243517        
  20316.031        2.6306153        
  20317.921        2.6365784        
  20320.310        2.6430028        
  20322.351        2.6491672        
  20324.265        2.6550614        
  20326.474        2.6604422        
  20328.702        2.6649131        
  20330.658        2.6687756        
  20332.723        2.6718245        
  20335.157        2.6740284        
  20337.128        2.6756878        
  20339.103        2.6767197        
  20341.411        2.6769917        
  20343.724        2.6759406        
  20345.651        2.6738043        
  20347.779        2.6711678        
  20350.166        2.6679697        
  20352.153        2.6637299        
  20354.278        2.6601157        
  20356.648        2.6571325        
  20358.787        2.6550885        
  20360.867        2.6541419        
  20363.135        2.6533298        
  20365.484        2.6517045        
  20367.579        2.6486678        
  20369.784        2.6442323        
  20372.377        2.6379005        
  20374.369        2.6312800        
  20376.598        2.6247742        
  20379.184        2.6205003        
  20381.218        2.6181670        
  20383.367        2.6176407        
  20385.917        2.6182187        
  20388.190        2.6188447        
  20390.322        2.6186887        
  20392.856        2.6182716        
  20395.245        2.6176395        
  20397.383        2.6160645        
  20399.882        2.6146145        
  20402.323        2.6130104        
  20404.421        2.6127825        
  20406.817        2.6138093        
  20409.456        2.6169601        
  20411.537        2.6201623        
  20413.885        2.6231602        
  20416.553        2.6253959        
  20418.640        2.6264590        
  20420.962        2.6268288        
  20423.705        2.6260291        
  20425.835        2.6248889        
  20428.305        2.6233885        
  20431.037        2.6219615        
  20433.146        2.6209263        
  20435.567        2.6206122        
  20438.286        2.6215156        
  20440.502        2.6228646        
  20442.778        2.6248387        
  20445.514        2.6271578        
  20447.759        2.6300742        
  20450.206        2.6328372        
  20452.976        2.6343700        
  20455.241        2.6339453        
  20457.750        2.6327900        
  20460.627        2.6302975        
  20462.871        2.6276107        
  20465.391        2.6259404        
  20468.059        2.6244817        
  20470.396        2.6231597        
  20472.941        2.6206125        
  20475.574        2.6178909        
  20477.950        2.6139373        
  20480.580        2.6090823        
  20483.326        2.6050061        
  20485.616        2.6025835        
  20488.497        2.6009899        
  20491.097        2.6004322        
  20493.380        2.6009889        
  20496.286        2.6015113        
  20498.786        2.6023478        
  20501.269        2.6026638        
  20504.048        2.6030667        
  20506.491        2.6030625        
  20509.054        2.6026786        
  20511.992        2.6022440        
  20514.395        2.6010937        
  20517.099        2.6000558        
  20520.049        2.5987067        
  20522.444        2.5977526        
  20525.266        2.5964160        
  20527.899        2.5953970        
  20530.338        2.5943225        
  20533.416        2.5940249        
  20535.908        2.5932687        
  20538.617        2.5938911        
  20541.592        2.5951250        
  20544.030        2.5966591        
  20546.955        2.5975167        
  20549.885        2.5971787        
  20552.316        2.5962298        
  20555.401        2.5949237        
  20558.069        2.5926601        
  20560.599        2.5922638        
  20563.710        2.5920143        
  20566.264        2.5919412        
  20569.177        2.5923421        
  20572.142        2.5929156        
  20574.768        2.5940944        
  20577.907        2.5962406        
  20580.576        2.5990148        
  20583.298        2.6022546        
  20586.402        2.6041658        
  20588.943        2.6057336        
  20591.909        2.6053448        
  20594.759        2.6031458        
  20597.517        2.5997158        
  20600.686        2.5962894        
  20603.287        2.5929225        
  20606.317        2.5880448        
  20609.302        2.5837354        
  20611.994        2.5798181        
  20615.093        2.5766500        
  20617.884        2.5746509        
  20620.625        2.5738413        
  20623.810        2.5731883        
  20626.333        2.5727205        
  20629.520        2.5720478        
  20632.465        2.5713485        
  20635.340        2.5701703        
  20638.591        2.5680270        
  20641.113        2.5660568        
  20644.201        2.5644546        
  20647.160        2.5643845        
  20649.922        2.5652125        
  20653.201        2.5667087        
  20655.895        2.5682892        
  20659.180        2.5698535        
  20662.204        2.5709334        
  20665.041        2.5713942        
  20668.362        2.5715719        
  20671.097        2.5714992        
  20674.411        2.5709433        
  20677.350        2.5706287        
  20680.332        2.5696550        
  20683.583        2.5693200        
  20686.294        2.5688861        
  20689.702        2.5688091        
  20692.772        2.5685630        
  20695.731        2.5687970        
  20699.099        2.5693192        
  20701.810        2.5697641        
  20705.223        2.5702467        
  20708.152        2.5706937        
  20711.308        2.5710747        
  20714.569        2.5707658        
  20717.363        2.5691761        
  20720.838        2.5672275        
  20723.729        2.5653613        
  20727.027        2.5635646        
  20730.132        2.5622600        
  20733.096        2.5608989        
  20736.477        2.5590410        
  20739.434        2.5564515        
  20742.812        2.5536341        
  20745.766        2.5516315        
  20748.924        2.5504167        
  20752.362        2.5490729        
  20755.318        2.5485223        
  20758.792        2.5476835        
  20761.788        2.5461858        
  20765.164        2.5446943        
  20768.347        2.5418107        
  20771.474        2.5397446        
  20774.952        2.5384469        
  20777.911        2.5377677        
  20781.572        2.5371329        
  20784.641        2.5376180        
  20788.058        2.5383618        
  20791.234        2.5396376        
  20794.553        2.5418225        
  20797.958        2.5435346        
  20801.066        2.5452061        
  20804.683        2.5465048        
  20807.726        2.5467066        
  20811.393        2.5456456        
  20814.504        2.5444416        
  20817.997        2.5429618        
  20821.278        2.5419491        
  20824.521        2.5410895        
  20828.046        2.5407112        
  20831.143        2.5404371        
  20834.947        2.5407692        
  20837.989        2.5408151        
  20841.634        2.5410947        
  20844.921        2.5404831        
  20848.387        2.5390914        
  20851.691        2.5381500        
  20855.039        2.5364325        
  20858.570        2.5357773        
