# XDI/1.0 Demeter/0.9.26
# Beamline.name: BM08-LISA
# Column.1: energy eV
# Column.2: mutrans
# Element.edge: K
# Element.symbol: Sn
# Facility.name: ESRF
# Facility.xray_source: Bending magnet
# Mono.d_spacing: 1.637039
# Mono.name: Si(311)
# Mono.notes: LNT cooled
# Sample.formula: Sn
# Sample.name: Sn metal foil
# Scan.start_time: 2023-09-30T20:51:25
# ///
# room temperature
#------------------------
#   energy  mutrans       
  28853.817       0.79421147E-01  
  28858.269       0.78645020E-01  
  28863.083       0.78455385E-01  
  28868.003       0.77962864E-01  
  28872.721       0.77677101E-01  
  28877.926       0.77571589E-01  
  28882.999       0.77555077E-01  
  28887.855       0.77410180E-01  
  28892.961       0.77080199E-01  
  28897.797       0.77091300E-01  
  28902.600       0.77322655E-01  
  28907.807       0.76934237E-01  
  28912.752       0.76806315E-01  
  28917.699       0.76773882E-01  
  28922.653       0.76765867E-01  
  28927.327       0.76555603E-01  
  28932.303       0.76478015E-01  
  28937.467       0.75719300E-01  
  28942.332       0.75356696E-01  
  28947.338       0.75215243E-01  
  28952.393       0.74879719E-01  
  28957.081       0.74800393E-01  
  28962.163       0.74889791E-01  
  28967.032       0.74877511E-01  
  28971.935       0.75040673E-01  
  28977.186       0.75538060E-01  
  28982.093       0.75355700E-01  
  28986.728       0.75393463E-01  
  28991.879       0.75680683E-01  
  28996.743       0.75936348E-01  
  29001.671       0.76401961E-01  
  29006.962       0.76418976E-01  
  29011.749       0.76602308E-01  
  29016.577       0.75779061E-01  
  29021.647       0.75864899E-01  
  29026.266       0.75716249E-01  
  29031.503       0.76364759E-01  
  29036.655       0.76123465E-01  
  29041.279       0.76136553E-01  
  29046.401       0.76173540E-01  
  29051.125       0.76523760E-01  
  29056.023       0.76712849E-01  
  29061.170       0.77233978E-01  
  29066.139       0.77242397E-01  
  29070.976       0.77702777E-01  
  29076.089       0.79011794E-01  
  29080.638       0.78750424E-01  
  29085.755       0.79516626E-01  
  29090.782       0.80280932E-01  
  29095.674       0.81287410E-01  
  29100.738       0.81934108E-01  
  29105.683       0.83008512E-01  
  29110.315       0.84318287E-01  
  29115.374       0.85233188E-01  
  29120.319       0.86975257E-01  
  29125.270       0.88821988E-01  
  29130.558       0.90816220E-01  
  29135.183       0.93505231E-01  
  29140.105       0.96568544E-01  
  29145.267       0.10050385      
  29149.999       0.10481635      
  29155.189       0.11058391      
  29160.254       0.11822754      
  29165.137       0.12802192      
  29170.220       0.14101397      
  29175.077       0.16042980      
  29180.134       0.19233121      
  29185.447       0.24836045      
  29185.904       0.25578539      
  29186.347       0.26423017      
  29186.936       0.27571623      
  29187.374       0.28512413      
  29187.807       0.29498765      
  29188.265       0.30572788      
  29188.727       0.31725975      
  29189.374       0.33467169      
  29189.866       0.34894547      
  29190.377       0.36408293      
  29190.898       0.38099045      
  29191.584       0.40618440      
  29192.076       0.42747258      
  29192.548       0.45069386      
  29193.006       0.47654928      
  29193.473       0.50643624      
  29194.052       0.54998958      
  29194.481       0.58757868      
  29194.904       0.62869622      
  29195.333       0.67443696      
  29195.927       0.74501667      
  29196.385       0.80405967      
  29196.857       0.86928600      
  29197.339       0.94016524      
  29197.831        1.0167094      
  29198.522        1.1312805      
  29199.034        1.2222329      
  29199.531        1.3179274      
  29200.003        1.4134635      
  29200.622        1.5436957      
  29201.060        1.6361570      
  29201.489        1.7216048      
  29201.908        1.7999592      
  29202.331        1.8675078      
  29202.901        1.9399841      
  29203.325        1.9791807      
  29203.774        2.0046890      
  29204.231        2.0197186      
  29204.709        2.0232977      
  29205.376        2.0155977      
  29205.883        2.0001392      
  29206.410        1.9796749      
  29206.916        1.9569776      
  29207.589        1.9214514      
  29208.071        1.8947962      
  29208.524        1.8696418      
  29208.978        1.8461476      
  29209.421        1.8231902      
  29210.001        1.7981695      
  29210.420        1.7819089      
  29210.854        1.7685366      
  29211.308        1.7558016      
  29211.932        1.7374046      
  29212.414        1.7280017      
  29212.911        1.7209960      
  29213.423        1.7150856      
  29213.964        1.7101070      
  29214.691        1.7040854      
  29215.203        1.7000105      
  29215.700        1.6972320      
  29216.173        1.6950156      
  29216.807        1.6922513      
  29217.251        1.6904612      
  29217.685        1.6896586      
  29218.124        1.6896962      
  29218.563        1.6908204      
  29219.177        1.6923726      
  29219.645        1.6942921      
  29220.123        1.6960872      
  29220.616        1.6991914      
  29221.123        1.7021152      
  29221.836        1.7058569      
  29222.362        1.7082526      
  29222.865        1.7106523      
  29223.372        1.7123776      
  29224.002        1.7144363      
  29224.450        1.7153858      
  29224.894        1.7152636      
  29225.314        1.7151981      
  29225.738        1.7146828      
  29226.309        1.7132567      
  29226.734        1.7110193      
  29227.183        1.7088630      
  29227.632        1.7069328      
  29228.105        1.7036498      
  29228.774        1.6985904      
  29229.281        1.6944839      
  29229.799        1.6901375      
  29230.311        1.6856886      
  29230.975        1.6788542      
  29231.907        1.6683634      
  29233.074        1.6552853      
  29234.075        1.6467507      
  29235.095        1.6432071      
  29236.213        1.6437564      
  29237.586        1.6502617      
  29238.933        1.6613847      
  29240.018        1.6727263      
  29241.190        1.6858822      
  29242.353        1.7003294      
  29243.603        1.7129996      
  29245.176        1.7256085      
  29246.579        1.7366001      
  29248.001        1.7474854      
  29249.183        1.7546701      
  29250.527        1.7586689      
  29251.979        1.7578042      
  29253.548        1.7535859      
  29255.054        1.7439809      
  29256.394        1.7327321      
  29257.812        1.7182763      
  29259.172        1.7067942      
  29260.859        1.6940886      
  29262.375        1.6839365      
  29263.867        1.6762257      
  29265.281        1.6713249      
  29266.769        1.6698959      
  29268.609        1.6715957      
  29270.302        1.6758871      
  29271.839        1.6819472      
  29273.440        1.6892159      
  29275.168        1.6974561      
  29276.950        1.7065067      
  29278.806        1.7177490      
  29280.461        1.7278144      
  29282.298        1.7386977      
  29284.175        1.7445590      
  29286.056        1.7459977      
  29287.888        1.7443215      
  29289.614        1.7380786      
  29291.368        1.7303041      
  29293.437        1.7219075      
  29295.265        1.7135673      
  29296.977        1.7066530      
  29299.017        1.7005392      
  29301.081        1.6971551      
  29303.132        1.6951475      
  29304.873        1.6941507      
  29306.958        1.6957662      
  29309.265        1.6981749      
  29311.287        1.7011445      
  29313.226        1.7055333      
  29315.386        1.7095970      
  29317.605        1.7134120      
  29319.702        1.7175347      
  29321.593        1.7206532      
  29323.926        1.7222165      
  29326.166        1.7232093      
  29328.156        1.7242426      
  29330.294        1.7233365      
  29332.698        1.7247074      
  29334.851        1.7233041      
  29337.073        1.7210550      
  29339.448        1.7190445      
  29341.956        1.7166044      
  29344.185        1.7142983      
  29346.625        1.7124762      
  29349.193        1.7104799      
  29351.413        1.7094846      
  29353.677        1.7093300      
  29356.242        1.7092689      
  29358.665        1.7086956      
  29361.033        1.7091556      
  29363.590        1.7099782      
  29366.147        1.7112937      
  29368.531        1.7111579      
  29371.296        1.7130678      
  29373.938        1.7137833      
  29376.531        1.7138838      
  29379.312        1.7136193      
  29382.064        1.7132188      
  29384.426        1.7126578      
  29387.303        1.7110854      
  29389.972        1.7093436      
  29392.479        1.7076138      
  29395.392        1.7052840      
  29398.063        1.7024481      
  29400.803        1.7005259      
  29403.811        1.6986863      
  29406.612        1.6964306      
  29409.522        1.6943065      
  29412.626        1.6941265      
  29415.315        1.6933860      
  29418.281        1.6933746      
  29421.204        1.6929104      
  29423.840        1.6928684      
  29427.085        1.6929063      
  29429.876        1.6936372      
  29432.786        1.6943669      
  29436.082        1.6935762      
  29438.795        1.6945651      
  29442.128        1.6938960      
  29445.204        1.6926447      
  29448.013        1.6910270      
  29451.214        1.6891212      
  29454.178        1.6866966      
  29457.122        1.6845773      
  29460.449        1.6824680      
  29463.400        1.6797371      
  29466.842        1.6771978      
  29469.953        1.6743893      
  29473.174        1.6726876      
  29476.549        1.6729119      
  29479.697        1.6689714      
  29483.088        1.6678760      
  29486.218        1.6663117      
  29489.616        1.6652486      
  29492.995        1.6644970      
  29496.186        1.6642126      
  29499.815        1.6635620      
  29502.987        1.6637320      
  29506.579        1.6632665      
  29509.857        1.6630266      
  29513.181        1.6631105      
  29516.740        1.6625227      
  29520.046        1.6614541      
  29523.775        1.6610183      
  29527.058        1.6591060      
  29530.869        1.6573932      
  29534.257        1.6551159      
  29538.165        1.6534136      
  29541.625        1.6525874      
  29545.311        1.6500286      
  29548.823        1.6488635      
  29552.290        1.6466022      
  29556.118        1.6447006      
  29559.547        1.6437288      
  29563.502        1.6418476      
  29567.123        1.6402362      
  29571.069        1.6393495      
  29574.657        1.6379959      
  29578.481        1.6375607      
  29582.061        1.6367282      
  29585.981        1.6363434      
  29589.678        1.6349592      
  29593.605        1.6343268      
  29597.454        1.6335171      
  29601.379        1.6324954      
  29605.390        1.6312696      
  29609.181        1.6298941      
  29613.144        1.6279310      
  29617.043        1.6274122      
  29621.073        1.6248433      
  29625.029        1.6236561      
  29629.137        1.6215612      
  29633.146        1.6200127      
  29637.210        1.6183948      
  29641.326        1.6170374      
  29645.308        1.6166162      
  29649.436        1.6144557      
  29653.586        1.6133229      
  29657.853        1.6118544      
  29662.015        1.6107471      
  29666.419        1.6091111      
  29670.458        1.6083639      
  29674.795        1.6073664      
  29678.891        1.6066089      
  29683.306        1.6057240      
  29687.455        1.6052476      
  29692.134        1.6046098      
  29696.190        1.6032066      
  29700.832        1.6022534      
  29705.243        1.6015915      
  29709.691        1.6004885      
  29714.060        1.5989082      
  29718.541        1.5972158      
  29723.174        1.5969627      
  29727.597        1.5965100      
  29732.466        1.5937872      
  29736.644        1.5939978      
  29741.364        1.5916531      
  29745.773        1.5904071      
  29750.521        1.5897924      
  29755.271        1.5887196      
  29759.704        1.5869923      
  29764.755        1.5865227      
  29769.262        1.5852053      
  29773.942        1.5843975      
  29778.527        1.5826016      
  29783.184        1.5819944      
  29788.087        1.5817017      
  29792.636        1.5799674      
  29797.785        1.5795572      
  29802.337        1.5783422      
  29807.200        1.5771134      
  29811.973        1.5758126      
  29816.626        1.5751643      
  29821.774        1.5740527      
  29826.521        1.5731479      
  29831.519        1.5720710      
  29836.489        1.5708233      
  29841.104        1.5688677      
  29846.336        1.5676043      
  29851.050        1.5667307      
  29856.164        1.5650346      
  29861.228        1.5640468      
  29866.044        1.5625552      
  29871.250        1.5614163      
  29876.156        1.5599836      
  29881.115        1.5591886      
  29886.392        1.5585060      
  29891.441        1.5571930      
  29896.645        1.5562275      
  29901.938        1.5588474      
  29906.685        1.5548656      
  29912.048        1.5532781      
  29917.157        1.5522326      
  29922.309        1.5517385      
  29927.816        1.5500156      
  29932.874        1.5494786      
  29938.082        1.5481393      
  29943.646        1.5465330      
  29948.653        1.5457584      
  29954.180        1.5449191      
  29959.816        1.5442283      
  29964.823        1.5429282      
  29970.284        1.5423398      
  29975.752        1.5411106      
  29981.068        1.5401830      
  29986.653        1.5402667      
  29992.220        1.5390755      
  29997.562        1.5375049      
  30003.056        1.5371585      
  30008.649        1.5364969      
  30013.807        1.5356704      
  30019.558        1.5349584      
  30025.287        1.5333510      
  30030.631        1.5329280      
  30036.255        1.5324701      
  30042.072        1.5317881      
  30047.432        1.5303293      
  30053.285        1.5301187      
  30059.181        1.5288122      
  30064.832        1.5272920      
  30070.526        1.5264284      
  30076.351        1.5254431      
  30082.101        1.5234856      
  30087.947        1.5234449      
  30093.940        1.5228045      
  30099.836        1.5208428      
  30105.388        1.5203671      
  30111.362        1.5207835      
  30117.364        1.5181465      
  30123.307        1.5174595      
  30129.153        1.5165086      
  30135.235        1.5152594      
  30141.262        1.5137826      
  30147.001        1.5125247      
  30153.007        1.5111104      
  30159.218        1.5100917      
  30165.297        1.5092186      
  30171.014        1.5079673      
  30177.149        1.5066529      
  30183.323        1.5047725      
